wavelength_nm,reflectance
205.10,0.043700
213.10,0.044321
221.10,0.044558
229.10,0.044487
236.10,0.044643
242.10,0.044416
248.10,0.044295
253.60,0.044354
258.60,0.044617
263.60,0.044555
268.60,0.044723
273.10,0.045090
277.10,0.045441
281.10,0.046092
285.10,0.046826
289.10,0.047148
293.10,0.047784
297.10,0.048661
301.10,0.049163
305.10,0.049795
309.10,0.050272
313.10,0.050756
317.10,0.051294
321.10,0.051630
325.10,0.051568
329.10,0.051883
333.10,0.052049
337.10,0.052423
341.10,0.052367
345.10,0.052528
349.10,0.052917
353.10,0.052499
357.10,0.052937
360.60,0.052783
363.60,0.053280
366.60,0.052924
369.60,0.053245
372.60,0.053484
375.60,0.053702
378.60,0.053934
381.10,0.053994
383.10,0.054533
385.10,0.055022
387.10,0.055683
389.10,0.056433
391.10,0.057178
393.10,0.058239
395.10,0.059151
397.10,0.059786
399.10,0.060608
401.10,0.061419
403.10,0.062387
405.10,0.061778
407.10,0.061872
409.10,0.061317
411.10,0.062147
412.80,0.062056
415.80,0.062039
418.80,0.062176
421.80,0.062161
424.80,0.062596
427.80,0.062210
430.80,0.062529
433.80,0.062778
436.80,0.062700
439.80,0.062968
442.80,0.063157
445.80,0.064323
448.80,0.063808
451.30,0.064215
453.30,0.064581
455.30,0.065047
457.30,0.065424
459.30,0.066278
461.30,0.066749
463.30,0.067178
465.30,0.068117
467.30,0.068952
469.30,0.069788
471.30,0.070514
473.30,0.071465
475.30,0.072363
477.30,0.073889
479.30,0.074777
481.30,0.075947
483.30,0.076726
485.30,0.077979
487.30,0.079679
489.30,0.080995
491.30,0.081977
493.30,0.083587
495.30,0.084523
497.30,0.086720
499.30,0.087963
501.30,0.090100
503.30,0.091997
505.30,0.093686
507.30,0.095150
509.30,0.097081
511.30,0.099352
513.30,0.101702
515.30,0.103370
517.30,0.105946
519.30,0.107398
521.30,0.110130
523.30,0.112323
525.30,0.113764
527.30,0.116059
529.30,0.117419
531.30,0.119394
533.30,0.121564
535.30,0.123513
537.30,0.124131
539.30,0.125294
541.30,0.127112
543.30,0.127782
545.30,0.128931
547.30,0.129390
549.30,0.130250
551.30,0.130842
553.30,0.130776
555.30,0.131348
557.30,0.131508
559.30,0.131870
561.30,0.131697
563.30,0.131602
565.30,0.131783
567.30,0.131683
569.30,0.131649
571.30,0.131580
573.30,0.131635
575.30,0.130969
577.30,0.131129
579.30,0.130494
581.30,0.130368
583.30,0.131207
585.30,0.130416
587.30,0.129862
589.30,0.129870
591.30,0.129591
593.30,0.128690
595.30,0.129291
597.30,0.128776
599.30,0.129491
601.10,0.128572
602.70,0.128451
604.30,0.128149
605.90,0.127937
607.50,0.127665
609.10,0.127424
610.70,0.127387
612.30,0.127830
613.90,0.126813
615.50,0.127074
617.10,0.126710
618.70,0.126904
620.30,0.127184
621.90,0.127135
623.50,0.127263
625.10,0.127215
626.70,0.127568
628.30,0.127790
629.90,0.127941
631.70,0.127802
633.70,0.128450
635.70,0.128277
637.70,0.128909
639.70,0.129549
641.70,0.130060
643.70,0.131152
645.70,0.131381
647.70,0.133032
649.70,0.133658
651.70,0.134312
653.70,0.136774
655.70,0.138412
657.70,0.138284
659.70,0.139686
661.70,0.140041
663.70,0.141404
665.70,0.142613
667.70,0.142511
670.20,0.143932
673.20,0.145328
676.20,0.146207
679.20,0.147697
682.20,0.148472
685.20,0.149369
688.20,0.150451
691.20,0.151513
694.20,0.152811
697.20,0.153415
700.20,0.154609
702.00,0.155740
704.00,0.156190
706.00,0.157135
708.00,0.158149
710.00,0.158732
712.00,0.158711
714.00,0.159192
716.00,0.160253
718.00,0.160193
720.00,0.160788
722.00,0.160077
724.00,0.159933
726.00,0.159763
728.00,0.159259
730.00,0.158020
732.00,0.157501
734.00,0.155387
736.00,0.153756
738.00,0.151936
740.00,0.150303
742.00,0.148407
744.00,0.145118
746.00,0.142513
748.00,0.139803
750.50,0.136781
753.50,0.133428
756.50,0.130264
759.50,0.126777
762.50,0.123711
765.50,0.121313
768.50,0.118770
771.50,0.116362
774.50,0.112989
777.50,0.111034
781.00,0.110488
785.00,0.110000
789.00,0.109775
793.00,0.109961
797.00,0.110000
801.50,0.110108
806.50,0.110434
811.50,0.110972
816.50,0.111087
822.00,0.111413
828.00,0.111927
835.00,0.112717
843.00,0.113733
851.00,0.113868
859.00,0.114667
871.00,0.116066
883.00,0.116808
894.00,0.118476
904.00,0.119780
914.00,0.120991
924.00,0.122195
933.00,0.124018
941.00,0.126630
949.00,0.127801
957.00,0.129778
964.00,0.132661
970.00,0.133858
976.00,0.136529
982.00,0.139713
988.00,0.141596
994.00,0.145481
1000.00,0.149785
1006.00,0.152383
1012.00,0.155564
1018.00,0.159306
1023.50,0.164887
1028.50,0.168143
1033.50,0.173176
1038.50,0.177817
1043.50,0.183382
1048.50,0.188145
1053.50,0.192888
1058.50,0.200069
1063.50,0.203594
1068.50,0.210443
1073.50,0.215976
1078.50,0.221520
1083.50,0.228762
1088.50,0.235376
1093.50,0.240868
1098.50,0.247212
1103.50,0.254104
1108.50,0.260815
1113.50,0.266900
1118.50,0.273080
1123.50,0.280015
1128.50,0.285391
1133.50,0.289894
1138.50,0.294928
1143.50,0.298934
1148.50,0.305651
1153.50,0.308987
1158.50,0.313644
1163.50,0.317133
1168.50,0.320489
1173.50,0.324110
1178.50,0.326313
1183.50,0.329796
1188.50,0.332192
1193.50,0.334909
1198.50,0.336593
1203.50,0.338669
1208.50,0.342196
1213.50,0.343200
1218.50,0.344147
1223.50,0.345009
1228.50,0.344417
1233.50,0.347669
1238.50,0.348803
1243.50,0.347700
1248.50,0.349907
1253.50,0.350989
1258.50,0.350902
1263.50,0.351827
1268.50,0.350590
1273.50,0.351581
1278.50,0.352441
1283.50,0.353511
1288.50,0.353113
1293.50,0.353989
1298.50,0.354007
1303.50,0.353612
1308.50,0.353297
1313.50,0.352451
1318.50,0.351306
1323.50,0.349988
1328.50,0.350996
1333.50,0.349206
1338.50,0.348427
1343.50,0.349036
1348.50,0.349677
1353.50,0.347179
1358.50,0.348620
1363.50,0.348464
1368.50,0.347430
1373.50,0.347268
1378.50,0.348367
1383.50,0.347963
1388.50,0.347778
1393.50,0.346715
1398.50,0.347937
1403.50,0.347311
1408.50,0.347799
1413.50,0.347852
1418.50,0.348683
1423.50,0.348276
1428.50,0.346911
1433.50,0.347934
1438.50,0.347139
1443.50,0.346835
1448.50,0.345413
1453.50,0.345141
1458.50,0.344793
1463.50,0.343440
1468.50,0.342795
1473.50,0.341179
1478.50,0.338883
1483.50,0.336520
1488.50,0.333411
1493.50,0.330814
1498.50,0.327844
1503.50,0.325586
1508.50,0.321706
1513.50,0.320052
1518.50,0.316918
1523.50,0.312710
1528.50,0.309419
1534.00,0.305700
1540.00,0.304571
1546.00,0.302988
1552.00,0.300189
1558.00,0.300437
1564.00,0.300060
1570.50,0.298564
1577.50,0.297365
1584.50,0.295908
1591.50,0.295575
1598.50,0.294073
1605.50,0.292190
1612.50,0.291247
1619.50,0.288341
1626.50,0.288468
1633.50,0.286311
1640.50,0.285730
1647.50,0.284813
1654.50,0.287885
1661.50,0.286810
1668.50,0.286765
1676.00,0.287876
1684.00,0.287653
1692.00,0.286902
1700.00,0.287334
1708.00,0.288149
1716.00,0.286655
1724.00,0.285479
1732.00,0.283026
1740.00,0.278885
1748.00,0.272302
1756.00,0.270679
1764.00,0.266541
1772.00,0.264109
1780.00,0.265247
1788.00,0.265079
1796.00,0.266059
1805.00,0.264196
1815.00,0.264328
1825.00,0.263915
1835.00,0.265424
1845.00,0.267316
1855.00,0.269623
1865.00,0.275334
1875.00,0.278366
1885.00,0.282983
1895.00,0.283765
1905.00,0.283620
1915.00,0.283753
1925.00,0.284284
1935.00,0.283373
1945.00,0.283782
1955.00,0.282524
1965.00,0.279856
1975.00,0.277011
1985.00,0.272340
1995.00,0.270854
2005.00,0.266071
2015.00,0.262328
2025.00,0.259114
2035.00,0.253838
2045.00,0.247297
2055.00,0.243184
2065.00,0.236702
2075.00,0.231998
2085.00,0.227029
2095.00,0.222338
2105.00,0.217168
2115.00,0.218502
2125.00,0.212205
2135.00,0.203894
2145.00,0.200093
2155.00,0.194668
2165.00,0.189693
2175.00,0.184800
2185.00,0.180025
2195.00,0.171179
2205.00,0.162704
2215.00,0.154410
2225.00,0.148107
2235.00,0.145917
2245.00,0.144375
2255.00,0.142173
2265.00,0.143572
2275.00,0.146418
2285.00,0.143113
2295.00,0.131383
2305.00,0.118430
2315.00,0.102561
2325.00,0.062350
2335.00,0.044850
2345.00,0.040880
2355.00,0.039157
2365.00,0.033453
2375.00,0.031135
