wavelength_nm,reflectance
205.10,0.068052
213.10,0.072753
221.10,0.071586
229.10,0.070141
236.10,0.078280
242.10,0.080079
248.10,0.080975
253.60,0.089902
258.60,0.091800
263.60,0.103849
268.60,0.112424
273.10,0.120474
277.10,0.139273
281.10,0.157604
285.10,0.171832
289.10,0.187670
293.10,0.211630
297.10,0.231570
301.10,0.254620
305.10,0.273968
309.10,0.295126
313.10,0.309494
317.10,0.333133
321.10,0.346522
325.10,0.357350
329.10,0.366400
333.10,0.368807
337.10,0.371020
341.10,0.376455
345.10,0.385904
349.10,0.393530
353.10,0.396745
357.10,0.407074
360.60,0.409345
363.60,0.410113
366.60,0.416757
369.60,0.424494
372.60,0.427826
375.60,0.432802
378.60,0.435090
381.10,0.441990
383.10,0.445593
385.10,0.449400
387.10,0.455627
389.10,0.460839
391.10,0.462280
393.10,0.470230
395.10,0.472996
397.10,0.475392
399.10,0.480017
401.10,0.480785
403.10,0.480906
405.10,0.482237
407.10,0.481597
409.10,0.482106
411.10,0.482474
412.80,0.482464
415.80,0.480099
418.80,0.482756
421.80,0.492658
424.80,0.498891
427.80,0.503283
430.80,0.506860
433.80,0.510180
436.80,0.513491
439.80,0.511645
442.80,0.515215
445.80,0.515552
448.80,0.518915
451.30,0.518475
453.30,0.518817
455.30,0.523358
457.30,0.521099
459.30,0.521534
461.30,0.528262
463.30,0.526304
465.30,0.526216
467.30,0.528418
469.30,0.526813
471.30,0.528013
473.30,0.529647
475.30,0.526286
477.30,0.532241
479.30,0.535634
481.30,0.532605
483.30,0.535580
485.30,0.535112
487.30,0.533370
489.30,0.535407
491.30,0.534219
493.30,0.535061
495.30,0.538053
497.30,0.539557
499.30,0.538111
501.30,0.538935
503.30,0.538475
505.30,0.539182
507.30,0.539603
509.30,0.540060
511.30,0.537037
513.30,0.539115
515.30,0.541201
517.30,0.541773
519.30,0.543406
521.30,0.537766
523.30,0.540757
525.30,0.543657
527.30,0.544851
529.30,0.544645
531.30,0.543972
533.30,0.544095
535.30,0.544241
537.30,0.543531
539.30,0.543955
541.30,0.544499
543.30,0.544538
545.30,0.545621
547.30,0.546461
549.30,0.544302
551.30,0.543639
553.30,0.546872
555.30,0.547500
557.30,0.546938
559.30,0.549318
561.30,0.549752
563.30,0.549987
565.30,0.546361
567.30,0.546708
569.30,0.548176
571.30,0.550176
573.30,0.552435
575.30,0.551021
577.30,0.551253
579.30,0.550943
581.30,0.550239
583.30,0.553672
585.30,0.553814
587.30,0.553858
589.30,0.551571
591.30,0.552093
593.30,0.554165
595.30,0.555788
597.30,0.555089
599.30,0.557348
601.10,0.556886
602.70,0.553922
604.30,0.553697
605.90,0.558987
607.50,0.556082
609.10,0.559911
610.70,0.558441
612.30,0.555982
613.90,0.558624
615.50,0.562944
617.10,0.563428
618.70,0.560150
620.30,0.568150
621.90,0.562744
623.50,0.562318
625.10,0.562120
626.70,0.562149
628.30,0.562503
629.90,0.567173
631.70,0.563564
633.70,0.565180
635.70,0.565946
637.70,0.565919
639.70,0.568120
641.70,0.569568
643.70,0.568205
645.70,0.572890
647.70,0.569533
649.70,0.571920
651.70,0.572760
653.70,0.572250
655.70,0.573225
657.70,0.574433
659.70,0.576238
661.70,0.576230
663.70,0.580451
665.70,0.575992
667.70,0.580930
670.20,0.580806
673.20,0.581918
676.20,0.582071
679.20,0.583879
682.20,0.585575
685.20,0.582519
688.20,0.584479
691.20,0.586619
694.20,0.590290
697.20,0.589679
700.20,0.591391
702.00,0.588973
704.00,0.591981
706.00,0.593799
708.00,0.594928
710.00,0.592753
712.00,0.596140
714.00,0.594228
716.00,0.595879
718.00,0.596661
720.00,0.597622
722.00,0.598925
724.00,0.600242
726.00,0.597447
728.00,0.599721
730.00,0.600164
732.00,0.602544
734.00,0.606168
736.00,0.604394
738.00,0.608218
740.00,0.605624
742.00,0.607518
744.00,0.608764
746.00,0.608841
748.00,0.611234
750.50,0.611419
753.50,0.612737
756.50,0.614319
759.50,0.610951
762.50,0.613699
765.50,0.611030
768.50,0.612397
771.50,0.611969
774.50,0.610671
777.50,0.606521
781.00,0.607950
785.00,0.601521
789.00,0.597494
793.00,0.595215
797.00,0.588310
801.50,0.588488
806.50,0.587285
811.50,0.589858
816.50,0.591310
822.00,0.593143
828.00,0.595856
835.00,0.598305
843.00,0.601195
851.00,0.603648
859.00,0.611105
871.00,0.613820
883.00,0.618367
894.00,0.622452
904.00,0.623842
914.00,0.627890
924.00,0.631377
933.00,0.630894
941.00,0.634115
949.00,0.634082
957.00,0.637089
964.00,0.637939
970.00,0.634555
976.00,0.641226
982.00,0.638878
988.00,0.638350
994.00,0.637799
1000.00,0.637236
1006.00,0.638228
1012.00,0.635455
1018.00,0.637065
1023.50,0.634657
1028.50,0.633630
1033.50,0.636094
1038.50,0.633892
1043.50,0.634521
1048.50,0.631697
1053.50,0.631383
1058.50,0.631232
1063.50,0.630850
1068.50,0.630118
1073.50,0.630479
1078.50,0.629248
1083.50,0.632028
1088.50,0.631041
1093.50,0.629515
1098.50,0.630438
1103.50,0.630312
1108.50,0.631597
1113.50,0.630537
1118.50,0.633149
1123.50,0.630569
1128.50,0.630959
1133.50,0.633641
1138.50,0.635730
1143.50,0.634433
1148.50,0.636175
1153.50,0.637150
1158.50,0.638805
1163.50,0.639611
1168.50,0.642448
1173.50,0.642988
1178.50,0.642884
1183.50,0.644289
1188.50,0.648154
1193.50,0.650425
1198.50,0.649014
1203.50,0.654642
1208.50,0.654530
1213.50,0.657751
1218.50,0.658913
1223.50,0.662309
1228.50,0.662798
1233.50,0.665042
1238.50,0.667008
1243.50,0.667649
1248.50,0.671805
1253.50,0.670679
1258.50,0.675436
1263.50,0.677009
1268.50,0.681660
1273.50,0.681255
1278.50,0.686033
1283.50,0.688870
1288.50,0.692535
1293.50,0.696976
1298.50,0.698303
1303.50,0.701455
1308.50,0.702006
1313.50,0.697515
1318.50,0.701049
1323.50,0.698201
1328.50,0.694110
1333.50,0.732672
1338.50,0.738106
1343.50,0.748137
1348.50,0.750164
1353.50,0.754413
1358.50,0.759917
1363.50,0.763997
1368.50,0.764692
1373.50,0.769584
1378.50,0.772435
1383.50,0.778158
1388.50,0.777711
1393.50,0.783369
1398.50,0.783472
1403.50,0.785828
1408.50,0.787647
1413.50,0.795574
1418.50,0.793291
1423.50,0.797136
1428.50,0.798774
1433.50,0.802073
1438.50,0.806588
1443.50,0.806778
1448.50,0.811098
1453.50,0.811845
1458.50,0.814882
1463.50,0.819018
1468.50,0.824301
1473.50,0.822059
1478.50,0.824864
1483.50,0.825888
1488.50,0.830690
1493.50,0.831155
1498.50,0.833781
1503.50,0.835232
1508.50,0.837465
1513.50,0.840859
1518.50,0.838784
1523.50,0.842737
1528.50,0.842690
1534.00,0.843862
1540.00,0.847637
1546.00,0.849719
1552.00,0.850628
1558.00,0.852690
1564.00,0.852504
1570.50,0.852511
1577.50,0.854472
1584.50,0.855078
1591.50,0.852294
1598.50,0.856230
1605.50,0.851931
1612.50,0.853130
1619.50,0.856485
1626.50,0.856711
1633.50,0.854825
1640.50,0.854324
1647.50,0.854395
1654.50,0.844831
1661.50,0.840004
1668.50,0.842076
1676.00,0.848849
1684.00,0.843321
1692.00,0.827567
1700.00,0.819616
1708.00,0.805691
1716.00,0.796707
1724.00,0.801654
1732.00,0.803201
1740.00,0.806463
1748.00,0.810250
1756.00,0.817105
1764.00,0.814855
1772.00,0.822795
1780.00,0.821696
1788.00,0.822099
1796.00,0.823724
1805.00,0.831474
1815.00,0.826076
1825.00,0.828038
1835.00,0.827465
1845.00,0.821680
1855.00,0.822112
1865.00,0.813909
1875.00,0.797504
1885.00,0.780766
1895.00,0.758853
1905.00,0.748842
1915.00,0.746134
1925.00,0.740901
1935.00,0.721685
1945.00,0.691246
1955.00,0.639756
1965.00,0.563126
1975.00,0.475258
1985.00,0.426708
1995.00,0.438100
2005.00,0.488561
2015.00,0.523038
2025.00,0.546927
2035.00,0.596238
2045.00,0.637982
2055.00,0.657296
2065.00,0.659407
2075.00,0.653485
2085.00,0.626984
2095.00,0.586258
2105.00,0.539566
2115.00,0.501233
2125.00,0.476213
2135.00,0.471025
2145.00,0.476500
2155.00,0.478538
2165.00,0.479940
2175.00,0.488781
2185.00,0.478224
2195.00,0.454133
2205.00,0.463774
2215.00,0.495590
2225.00,0.530439
2235.00,0.532479
2245.00,0.506235
2255.00,0.488068
2265.00,0.477958
2275.00,0.395944
2285.00,0.218625
2295.00,0.052146
2305.00,0.058572
2315.00,0.147410
2325.00,0.218539
2335.00,0.243946
2345.00,0.238578
2355.00,0.249426
2365.00,0.277552
