wavelength_nm,reflectance
205.10,0.190863
213.10,0.189153
221.10,0.189230
229.10,0.199218
236.10,0.203455
242.10,0.216325
248.10,0.232532
253.60,0.238585
258.60,0.255070
263.60,0.264192
268.60,0.270531
273.10,0.275055
277.10,0.283211
281.10,0.286349
285.10,0.291073
289.10,0.292713
293.10,0.293921
297.10,0.307133
301.10,0.304318
305.10,0.321826
309.10,0.332431
313.10,0.343680
317.10,0.359323
321.10,0.380551
325.10,0.405587
329.10,0.430534
333.10,0.451093
337.10,0.469374
341.10,0.491577
345.10,0.505143
349.10,0.526340
353.10,0.544282
357.10,0.554226
360.60,0.570280
363.60,0.574441
366.60,0.580043
369.60,0.585603
372.60,0.594239
375.60,0.600188
378.60,0.606923
381.10,0.608110
383.10,0.617341
385.10,0.620370
387.10,0.623712
389.10,0.625408
391.10,0.634613
393.10,0.636113
395.10,0.641692
397.10,0.645651
399.10,0.649157
401.10,0.651414
403.10,0.655503
405.10,0.660601
407.10,0.663109
409.10,0.665396
411.10,0.667675
412.80,0.672722
415.80,0.678708
418.80,0.679162
421.80,0.686928
424.80,0.690729
427.80,0.695892
430.80,0.694296
433.80,0.695135
436.80,0.697658
439.80,0.698860
442.80,0.697099
445.80,0.700963
448.80,0.702385
451.30,0.706900
453.30,0.703344
455.30,0.703338
457.30,0.708020
459.30,0.708014
461.30,0.707489
463.30,0.709473
465.30,0.709729
467.30,0.713335
469.30,0.714083
471.30,0.714423
473.30,0.718616
475.30,0.715694
477.30,0.719623
479.30,0.718236
481.30,0.722048
483.30,0.720203
485.30,0.725093
487.30,0.724139
489.30,0.724345
491.30,0.729941
493.30,0.731207
495.30,0.730311
497.30,0.733033
499.30,0.732449
501.30,0.737903
503.30,0.739428
505.30,0.737654
507.30,0.744040
509.30,0.742184
511.30,0.741940
513.30,0.741163
515.30,0.744999
517.30,0.746123
519.30,0.749024
521.30,0.750248
523.30,0.748019
525.30,0.749643
527.30,0.752288
529.30,0.751283
531.30,0.751959
533.30,0.752652
535.30,0.757725
537.30,0.759351
539.30,0.756168
541.30,0.759561
543.30,0.756436
545.30,0.756659
547.30,0.756412
549.30,0.760132
551.30,0.757429
553.30,0.758631
555.30,0.759832
557.30,0.760911
559.30,0.762441
561.30,0.762038
563.30,0.759445
565.30,0.761395
567.30,0.766494
569.30,0.766238
571.30,0.765256
573.30,0.764205
575.30,0.767899
577.30,0.766693
579.30,0.764068
581.30,0.763636
583.30,0.767915
585.30,0.766200
587.30,0.765382
589.30,0.765302
591.30,0.765316
593.30,0.765694
595.30,0.764254
597.30,0.766415
599.30,0.766808
601.10,0.764287
602.70,0.765012
604.30,0.763366
605.90,0.765883
607.50,0.766418
609.10,0.765734
610.70,0.767175
612.30,0.767162
613.90,0.762868
615.50,0.770304
617.10,0.767209
618.70,0.767099
620.30,0.764994
621.90,0.770280
623.50,0.770578
625.10,0.768873
626.70,0.765940
628.30,0.768939
629.90,0.765211
631.70,0.769467
633.70,0.764824
635.70,0.767128
637.70,0.769849
639.70,0.768550
641.70,0.768283
643.70,0.768368
645.70,0.769390
647.70,0.768367
649.70,0.771403
651.70,0.771739
653.70,0.768220
655.70,0.769349
657.70,0.769179
659.70,0.767356
661.70,0.773232
663.70,0.770785
665.70,0.767966
667.70,0.771575
670.20,0.767139
673.20,0.772123
676.20,0.767932
679.20,0.771807
682.20,0.773407
685.20,0.774789
688.20,0.775698
691.20,0.769665
694.20,0.771787
697.20,0.771262
700.20,0.772222
702.00,0.774433
704.00,0.775597
706.00,0.773265
708.00,0.777348
710.00,0.779421
712.00,0.775797
714.00,0.776614
716.00,0.777846
718.00,0.774782
720.00,0.781298
722.00,0.776756
724.00,0.780713
726.00,0.778916
728.00,0.779397
730.00,0.778706
732.00,0.775538
734.00,0.782332
736.00,0.781946
738.00,0.786047
740.00,0.783692
742.00,0.784263
744.00,0.782198
746.00,0.785670
748.00,0.782482
750.50,0.785052
753.50,0.789603
756.50,0.786668
759.50,0.786498
762.50,0.786731
765.50,0.787344
768.50,0.792332
771.50,0.792148
774.50,0.789538
777.50,0.795290
781.00,0.790774
785.00,0.791857
789.00,0.793381
793.00,0.796938
797.00,0.793194
801.50,0.788272
806.50,0.786746
811.50,0.791744
816.50,0.791007
822.00,0.782026
828.00,0.784656
835.00,0.779637
843.00,0.779866
851.00,0.772698
859.00,0.765429
871.00,0.760857
883.00,0.768420
894.00,0.784401
904.00,0.780914
914.00,0.784215
924.00,0.784240
933.00,0.783346
941.00,0.784690
949.00,0.784068
957.00,0.785505
964.00,0.784337
970.00,0.786870
976.00,0.782900
982.00,0.782820
988.00,0.788217
994.00,0.786144
1000.00,0.784505
1006.00,0.785067
1012.00,0.783684
1018.00,0.784948
1023.50,0.781792
1028.50,0.786931
1033.50,0.783051
1038.50,0.784059
1043.50,0.784488
1048.50,0.784780
1053.50,0.784257
1058.50,0.782205
1063.50,0.784294
1068.50,0.782858
1073.50,0.784241
1078.50,0.782954
1083.50,0.783711
1088.50,0.784953
1093.50,0.784996
1098.50,0.785878
1103.50,0.784200
1108.50,0.783862
1113.50,0.784583
1118.50,0.783043
1123.50,0.782614
1128.50,0.783674
1133.50,0.783603
1138.50,0.785121
1143.50,0.783711
1148.50,0.781650
1153.50,0.781704
1158.50,0.781041
1163.50,0.779775
1168.50,0.779866
1173.50,0.774905
1178.50,0.768795
1183.50,0.762710
1188.50,0.759385
1193.50,0.759418
1198.50,0.768549
1203.50,0.770144
1208.50,0.770189
1213.50,0.773693
1218.50,0.771831
1223.50,0.770563
1228.50,0.768187
1233.50,0.762730
1238.50,0.746713
1243.50,0.737051
1248.50,0.732540
1253.50,0.725559
1258.50,0.718242
1263.50,0.717208
1268.50,0.712382
1273.50,0.705685
1278.50,0.702511
1283.50,0.699714
1288.50,0.698162
1293.50,0.696570
1298.50,0.680475
1303.50,0.644101
1308.50,0.632515
1313.50,0.638511
1318.50,0.647080
1323.50,0.634927
1328.50,0.609254
1333.50,0.577238
1338.50,0.530341
1343.50,0.465205
1348.50,0.470635
1353.50,0.488073
1358.50,0.513678
1363.50,0.446110
1368.50,0.563289
1373.50,0.668444
1378.50,0.700160
1383.50,0.721384
1388.50,0.733742
1393.50,0.743951
1398.50,0.744916
1403.50,0.753132
1408.50,0.757792
1413.50,0.758957
1418.50,0.766015
1423.50,0.772375
1428.50,0.770870
1433.50,0.773490
1438.50,0.776439
1443.50,0.778976
1448.50,0.782461
1453.50,0.784008
1458.50,0.779193
1463.50,0.784097
1468.50,0.784643
1473.50,0.785065
1478.50,0.789369
1483.50,0.789087
1488.50,0.787560
1493.50,0.788208
1498.50,0.790131
1503.50,0.789056
1508.50,0.790626
1513.50,0.791191
1518.50,0.789645
1523.50,0.792202
1528.50,0.796035
1534.00,0.793794
1540.00,0.791724
1546.00,0.794744
1552.00,0.795468
1558.00,0.793704
1564.00,0.794399
1570.50,0.792711
1577.50,0.790929
1584.50,0.796840
1591.50,0.787010
1598.50,0.793186
1605.50,0.786030
1612.50,0.785892
1619.50,0.784680
1626.50,0.786703
1633.50,0.779109
1640.50,0.778165
1647.50,0.775645
1654.50,0.773178
1661.50,0.767410
1668.50,0.768016
1676.00,0.763349
1684.00,0.754407
1692.00,0.747802
1700.00,0.735485
1708.00,0.729492
1716.00,0.720132
1724.00,0.712431
1732.00,0.701746
1740.00,0.706874
1748.00,0.711749
1756.00,0.706206
1764.00,0.726891
1772.00,0.726407
1780.00,0.708844
1788.00,0.686259
1796.00,0.664605
1805.00,0.642576
1815.00,0.625892
1825.00,0.629400
1835.00,0.628150
1845.00,0.630078
1855.00,0.634586
1865.00,0.639310
1875.00,0.641080
1885.00,0.645531
1895.00,0.641288
1905.00,0.637168
1915.00,0.632019
1925.00,0.632969
1935.00,0.624061
1945.00,0.616597
1955.00,0.612075
1965.00,0.598310
1975.00,0.577769
1985.00,0.564311
1995.00,0.554066
2005.00,0.544988
2015.00,0.519771
2025.00,0.506750
2035.00,0.480482
2045.00,0.421991
2055.00,0.357999
2065.00,0.341639
2075.00,0.357073
2085.00,0.358544
2095.00,0.333055
2105.00,0.287858
2115.00,0.343933
2125.00,0.430948
2135.00,0.439232
2145.00,0.437121
2155.00,0.437345
2165.00,0.424649
2175.00,0.407398
2185.00,0.394295
2195.00,0.377425
2205.00,0.373649
2215.00,0.356703
2225.00,0.354289
2235.00,0.360157
2245.00,0.352964
2255.00,0.336485
2265.00,0.336667
2275.00,0.321157
2285.00,0.314944
2295.00,0.324445
2305.00,0.326300
2315.00,0.295394
2325.00,0.267603
2335.00,0.249469
2345.00,0.233891
2355.00,0.221288
2365.00,0.212892
2375.00,0.193736
2386.00,0.148397
2400.00,0.055842
2418.00,0.027382
2440.00,0.036656
2466.00,0.068456
2496.00,0.084735
2528.00,0.082676
2560.00,0.106579
2592.00,0.109267
2624.00,0.122089
2656.00,0.128724
